wavelength, flux 
380.000,  0.457 
380.100,  0.610 
380.200,  0.452 
380.300,  0.672 
380.400,  0.718 
380.500,  0.506 
380.600,  0.568 
380.700,  0.351 
380.800,  0.589 
380.900,  0.644 
381.000,  0.753 
381.100,  0.592 
381.200,  0.657 
381.300,  0.598 
381.400,  0.546 
381.500,  0.460 
381.600,  0.244 
381.700,  0.660 
381.800,  0.470 
381.900,  0.619 
382.000,  0.269 
382.100,  0.295 
382.200,  0.436 
382.300,  0.577 
382.400,  0.303 
382.500,  0.317 
382.600,  0.212 
382.700,  0.470 
382.800,  0.289 
382.900,  0.313 
383.000,  0.416 
383.100,  0.498 
383.200,  0.199 
383.300,  0.270 
383.400,  0.180 
383.500,  0.304 
383.600,  0.338 
383.700,  0.386 
383.800,  0.204 
383.900,  0.324 
384.000,  0.360 
384.100,  0.251 
384.200,  0.554 
384.300,  0.473 
384.400,  0.484 
384.500,  0.569 
384.600,  0.571 
384.700,  0.530 
384.800,  0.664 
384.900,  0.547 
385.000,  0.335 
385.100,  0.570 
385.200,  0.603 
385.300,  0.581 
385.400,  0.514 
385.500,  0.527 
385.600,  0.300 
385.700,  0.524 
385.800,  0.389 
385.900,  0.298 
386.000,  0.186 
386.100,  0.375 
386.200,  0.570 
386.300,  0.495 
386.400,  0.552 
386.500,  0.494 
386.600,  0.472 
386.700,  0.390 
386.800,  0.423 
386.900,  0.428 
387.000,  0.429 
387.100,  0.272 
387.200,  0.354 
387.300,  0.427 
387.400,  0.547 
387.500,  0.534 
387.600,  0.623 
387.700,  0.563 
387.800,  0.317 
387.900,  0.346 
388.000,  0.440 
388.100,  0.523 
388.200,  0.389 
388.300,  0.257 
388.400,  0.634 
388.500,  0.553 
388.600,  0.241 
388.700,  0.382 
388.800,  0.476 
388.900,  0.287 
389.000,  0.448 
389.100,  0.485 
389.200,  0.578 
389.300,  0.429 
389.400,  0.596 
389.500,  0.496 
389.600,  0.402 
389.700,  0.763 
389.800,  0.488 
389.900,  0.656 
390.000,  0.475 
390.100,  0.726 
390.200,  0.574 
390.300,  0.426 
390.400,  0.515 
390.500,  0.534 
390.600,  0.438 
390.700,  0.491 
390.800,  0.659 
390.900,  0.656 
391.000,  0.602 
391.100,  0.587 
391.200,  0.696 
391.300,  0.689 
391.400,  0.519 
391.500,  0.730 
391.600,  0.517 
391.700,  0.667 
391.800,  0.580 
391.900,  0.476 
392.000,  0.434 
392.100,  0.389 
392.200,  0.513 
392.300,  0.350 
392.400,  0.596 
392.500,  0.505 
392.600,  0.402 
392.700,  0.459 
392.800,  0.225 
392.900,  0.280 
393.000,  0.226 
393.100,  0.251 
393.200,  0.158 
393.300,  0.094 
393.400,  0.122 
393.500,  0.189 
393.600,  0.178 
393.700,  0.218 
393.800,  0.250 
393.900,  0.377 
394.000,  0.432 
394.100,  0.416 
394.200,  0.476 
394.300,  0.490 
394.400,  0.300 
394.500,  0.454 
394.600,  0.722 
394.700,  0.573 
394.800,  0.495 
394.900,  0.533 
395.000,  0.530 
395.100,  0.664 
395.200,  0.663 
395.300,  0.437 
395.400,  0.747 
395.500,  0.679 
395.600,  0.606 
395.700,  0.487 
395.800,  0.629 
395.900,  0.740 
396.000,  0.635 
396.100,  0.453 
396.200,  0.338 
396.300,  0.393 
396.400,  0.387 
396.500,  0.249 
396.600,  0.177 
396.700,  0.232 
396.800,  0.126 
396.900,  0.093 
397.000,  0.154 
397.100,  0.286 
397.200,  0.321 
397.300,  0.421 
397.400,  0.329 
397.500,  0.453 
397.600,  0.503 
397.700,  0.523 
397.800,  0.554 
397.900,  0.656 
398.000,  0.712 
398.100,  0.708 
398.200,  0.554 
398.300,  0.611 
398.400,  0.638 
398.500,  0.610 
398.600,  0.719 
398.700,  0.578 
398.800,  0.837 
398.900,  0.815 
399.000,  0.619 
399.100,  0.754 
399.200,  0.765 
399.300,  0.849 
399.400,  0.634 
399.500,  0.572 
399.600,  0.722 
399.700,  0.590 
399.800,  0.759 
399.900,  0.577 
400.000,  0.827 
400.100,  0.784 
400.200,  0.752 
400.300,  0.759 
400.400,  0.774 
400.500,  0.480 
400.600,  0.686 
400.700,  0.621 
400.800,  0.898 
400.900,  0.883 
401.000,  0.650 
401.100,  0.790 
401.200,  0.592 
401.300,  0.853 
401.400,  0.695 
401.500,  0.715 
401.600,  0.764 
401.700,  0.767 
401.800,  0.724 
401.900,  0.844 
402.000,  0.700 
402.100,  0.858 
402.200,  0.605 
402.300,  0.855 
402.400,  0.664 
402.500,  0.575 
402.600,  0.776 
402.700,  0.758 
402.800,  0.795 
402.900,  0.866 
403.000,  0.650 
403.100,  0.499 
403.200,  0.662 
403.300,  0.488 
403.400,  0.605 
403.500,  0.807 
403.600,  0.591 
403.700,  0.819 
403.800,  0.835 
403.900,  0.767 
404.000,  0.848 
404.100,  0.649 
404.200,  0.786 
404.300,  0.855 
404.400,  0.684 
404.500,  0.556 
404.600,  0.290 
404.700,  0.728 
404.800,  0.877 
404.900,  0.692 
405.000,  0.811 
405.100,  0.790 
405.200,  0.716 
405.300,  0.753 
405.400,  0.796 
405.500,  0.556 
405.600,  0.852 
405.700,  0.737 
405.800,  0.630 
405.900,  0.683 
406.000,  0.789 
406.100,  0.815 
406.200,  0.704 
406.300,  0.583 
406.400,  0.382 
406.500,  0.726 
406.600,  0.729 
406.700,  0.592 
406.800,  0.795 
406.900,  0.735 
407.000,  0.750 
407.100,  0.581 
407.200,  0.440 
407.300,  0.821 
407.400,  0.780 
407.500,  0.711 
407.600,  0.707 
407.700,  0.537 
407.800,  0.506 
407.900,  0.749 
408.000,  0.716 
408.100,  0.874 
408.200,  0.734 
408.300,  0.761 
408.400,  0.590 
408.500,  0.657 
408.600,  0.810 
408.700,  0.844 
408.800,  0.873 
408.900,  0.801 
409.000,  0.793 
409.100,  0.771 
409.200,  0.783 
409.300,  0.791 
409.400,  0.859 
409.500,  0.771 
409.600,  0.657 
409.700,  0.702 
409.800,  0.754 
409.900,  0.705 
410.000,  0.623 
410.100,  0.481 
410.200,  0.337 
410.300,  0.520 
410.400,  0.675 
410.500,  0.574 
410.600,  0.686 
410.700,  0.766 
410.800,  0.728 
410.900,  0.751 
411.000,  0.763 
411.100,  0.782 
411.200,  0.750 
411.300,  0.684 
411.400,  0.883 
411.500,  0.753 
411.600,  0.831 
411.700,  0.821 
411.800,  0.810 
411.900,  0.619 
412.000,  0.722 
412.100,  0.848 
412.200,  0.861 
412.300,  0.725 
412.400,  0.771 
412.500,  0.850 
412.600,  0.671 
412.700,  0.846 
412.800,  0.598 
412.900,  0.710 
413.000,  0.823 
413.100,  0.785 
413.200,  0.552 
413.300,  0.742 
413.400,  0.557 
413.500,  0.701 
413.600,  0.924 
413.700,  0.669 
413.800,  0.815 
413.900,  0.867 
414.000,  0.727 
414.100,  0.847 
414.200,  0.700 
414.300,  0.696 
414.400,  0.486 
414.500,  0.832 
414.600,  0.719 
414.700,  0.863 
414.800,  0.773 
414.900,  0.720 
415.000,  0.673 
415.100,  0.865 
415.200,  0.702 
415.300,  0.838 
415.400,  0.532 
415.500,  0.744 
415.600,  0.774 
415.700,  0.685 
415.800,  0.740 
415.900,  0.781 
416.000,  0.879 
416.100,  0.801 
416.200,  0.701 
416.300,  0.805 
416.400,  0.722 
416.500,  0.754 
416.600,  0.887 
416.700,  0.641 
416.800,  0.770 
416.900,  0.862 
417.000,  0.760 
417.100,  0.779 
417.200,  0.573 
417.300,  0.608 
417.400,  0.682 
417.500,  0.714 
417.600,  0.659 
417.700,  0.692 
417.800,  0.601 
417.900,  0.722 
418.000,  0.843 
418.100,  0.737 
418.200,  0.646 
418.300,  0.739 
418.400,  0.872 
418.500,  0.748 
418.600,  0.740 
418.700,  0.663 
418.800,  0.631 
418.900,  0.718 
419.000,  0.758 
419.100,  0.727 
419.200,  0.755 
419.300,  0.870 
419.400,  0.837 
419.500,  0.598 
419.600,  0.666 
419.700,  0.783 
419.800,  0.647 
419.900,  0.573 
420.000,  0.751 
420.100,  0.698 
420.200,  0.434 
420.300,  0.745 
420.400,  0.739 
420.500,  0.641 
420.600,  0.845 
420.700,  0.636 
420.800,  0.950 
420.900,  0.838 
421.000,  0.652 
421.100,  0.779 
421.200,  0.828 
421.300,  0.778 
421.400,  0.745 
421.500,  0.783 
421.600,  0.497 
421.700,  0.692 
421.800,  0.771 
421.900,  0.739 
422.000,  0.797 
422.100,  0.912 
422.200,  0.759 
422.300,  0.819 
422.400,  0.686 
422.500,  0.620 
422.600,  0.517 
422.700,  0.245 
422.800,  0.754 
422.900,  0.841 
423.000,  0.752 
423.100,  0.866 
423.200,  0.810 
423.300,  0.717 
423.400,  0.746 
423.500,  0.797 
423.600,  0.518 
423.700,  0.704 
423.800,  0.767 
423.900,  0.661 
424.000,  0.618 
424.100,  0.798 
424.200,  0.778 
424.300,  0.683 
424.400,  0.822 
424.500,  0.808 
424.600,  0.855 
424.700,  0.625 
424.800,  0.665 
424.900,  0.700 
425.000,  0.620 
425.100,  0.598 
425.200,  0.844 
425.300,  0.734 
425.400,  0.646 
425.500,  0.722 
425.600,  0.705 
425.700,  0.940 
425.800,  0.742 
425.900,  0.755 
426.000,  0.536 
426.100,  0.641 
426.200,  0.691 
426.300,  0.737 
426.400,  0.721 
426.500,  0.734 
426.600,  0.846 
426.700,  0.730 
426.800,  0.643 
426.900,  0.737 
427.000,  0.577 
427.100,  0.517 
427.200,  0.344 
427.300,  0.701 
427.400,  0.657 
427.500,  0.477 
427.600,  0.767 
427.700,  0.732 
427.800,  0.783 
427.900,  0.807 
428.000,  0.562 
428.100,  0.666 
428.200,  0.703 
428.300,  0.698 
428.400,  0.815 
428.500,  0.628 
428.600,  0.574 
428.700,  0.615 
428.800,  0.709 
428.900,  0.575 
429.000,  0.468 
429.100,  0.548 
429.200,  0.626 
429.300,  0.752 
429.400,  0.695 
429.500,  0.546 
429.600,  0.739 
429.700,  0.492 
429.800,  0.599 
429.900,  0.409 
430.000,  0.430 
430.100,  0.441 
430.200,  0.535 
430.300,  0.426 
430.400,  0.491 
430.500,  0.456 
430.600,  0.572 
430.700,  0.528 
430.800,  0.216 
430.900,  0.452 
431.000,  0.442 
431.100,  0.459 
431.200,  0.517 
431.300,  0.565 
431.400,  0.624 
431.500,  0.632 
431.600,  0.966 
431.700,  0.818 
431.800,  0.948 
431.900,  0.814 
432.000,  0.831 
432.100,  0.647 
432.200,  0.854 
432.300,  0.663 
432.400,  0.491 
432.500,  0.552 
432.600,  0.398 
432.700,  0.630 
432.800,  0.780 
432.900,  0.864 
433.000,  0.746 
433.100,  0.712 
433.200,  0.856 
433.300,  0.725 
433.400,  0.777 
433.500,  0.777 
433.600,  0.840 
433.700,  0.604 
433.800,  0.551 
433.900,  0.556 
434.000,  0.438 
434.100,  0.431 
434.200,  0.626 
434.300,  0.647 
434.400,  0.577 
434.500,  0.736 
434.600,  0.809 
434.700,  0.740 
434.800,  0.614 
434.900,  0.763 
435.000,  0.764 
435.100,  0.683 
435.200,  0.449 
435.300,  0.685 
435.400,  0.803 
435.500,  0.720 
435.600,  0.741 
435.700,  0.811 
435.800,  0.880 
435.900,  0.701 
436.000,  0.667 
436.100,  0.801 
436.200,  0.896 
436.300,  0.724 
436.400,  0.774 
436.500,  0.865 
436.600,  0.857 
436.700,  0.761 
436.800,  0.645 
436.900,  0.916 
437.000,  0.761 
437.100,  0.714 
437.200,  0.860 
437.300,  0.785 
437.400,  0.607 
437.500,  0.748 
437.600,  0.710 
437.700,  0.729 
437.800,  0.810 
437.900,  0.786 
438.000,  0.803 
438.100,  0.784 
438.200,  0.863 
438.300,  0.438 
438.400,  0.461 
438.500,  0.478 
438.600,  0.804 
438.700,  0.705 
438.800,  0.677 
438.900,  0.805 
439.000,  0.664 
439.100,  0.693 
439.200,  0.734 
439.300,  0.818 
439.400,  0.695 
439.500,  0.609 
439.600,  0.768 
439.700,  0.782 
439.800,  0.760 
439.900,  0.818 
440.000,  0.575 
440.100,  0.642 
440.200,  0.815 
440.300,  0.764 
440.400,  0.748 
440.500,  0.531 
440.600,  0.817 
440.700,  0.822 
440.800,  0.582 
440.900,  0.742 
441.000,  0.791 
441.100,  0.850 
441.200,  0.835 
441.300,  0.929 
441.400,  0.792 
441.500,  0.630 
441.600,  0.814 
441.700,  0.730 
441.800,  0.728 
441.900,  0.866 
442.000,  0.830 
442.100,  0.846 
442.200,  0.776 
442.300,  0.799 
442.400,  0.803 
442.500,  0.834 
442.600,  0.822 
442.700,  0.756 
442.800,  0.892 
442.900,  0.894 
443.000,  0.775 
443.100,  0.834 
443.200,  0.895 
443.300,  0.782 
443.400,  0.823 
443.500,  0.673 
443.600,  0.762 
443.700,  0.898 
443.800,  0.857 
443.900,  0.894 
444.000,  0.813 
444.100,  0.823 
444.200,  0.736 
444.300,  0.729 
444.400,  0.713 
444.500,  0.827 
444.600,  0.843 
444.700,  0.816 
444.800,  0.847 
444.900,  0.858 
445.000,  0.810 
445.100,  0.873 
445.200,  0.906 
445.300,  0.783 
445.400,  0.764 
445.500,  0.561 
445.600,  0.702 
445.700,  0.730 
445.800,  0.795 
445.900,  0.713 
446.000,  0.817 
446.100,  0.721 
446.200,  0.623 
446.300,  0.923 
446.400,  0.863 
446.500,  0.793 
446.600,  0.857 
446.700,  0.729 
446.800,  0.872 
446.900,  0.695 
447.000,  0.736 
447.100,  0.791 
447.200,  0.887 
447.300,  0.834 
447.400,  0.848 
447.500,  0.910 
447.600,  0.784 
447.700,  0.931 
447.800,  0.929 
447.900,  0.921 
448.000,  0.738 
448.100,  0.765 
448.200,  0.720 
448.300,  0.779 
448.400,  0.798 
448.500,  0.886 
448.600,  0.844 
448.700,  0.870 
448.800,  0.774 
448.900,  0.833 
449.000,  0.842 
449.100,  0.783 
449.200,  0.920 
449.300,  0.851 
449.400,  0.860 
449.500,  0.803 
449.600,  0.837 
449.700,  0.821 
449.800,  0.925 
449.900,  0.818 
450.000,  0.920 
450.100,  0.837 
450.200,  0.869 
450.300,  0.951 
450.400,  0.922 
450.500,  0.934 
450.600,  0.919 
450.700,  0.917 
450.800,  0.847 
450.900,  0.931 
451.000,  0.979 
451.100,  0.927 
451.200,  0.911 
451.300,  0.880 
451.400,  0.910 
451.500,  0.857 
451.600,  0.887 
451.700,  0.940 
451.800,  0.763 
451.900,  0.971 
452.000,  0.811 
452.100,  0.951 
452.200,  0.961 
452.300,  0.774 
452.400,  0.989 
452.500,  0.717 
452.600,  0.860 
452.700,  0.761 
452.800,  0.879 
452.900,  0.620 
453.000,  0.905 
453.100,  0.716 
453.200,  0.879 
453.300,  0.847 
453.400,  0.783 
453.500,  0.839 
453.600,  0.717 
453.700,  0.957 
453.800,  0.903 
453.900,  0.888 
454.000,  0.886 
454.100,  0.774 
454.200,  0.833 
454.300,  0.961 
454.400,  0.882 
454.500,  0.727 
454.600,  0.828 
454.700,  0.827 
454.800,  0.839 
454.900,  0.777 
455.000,  0.780 
455.100,  0.945 
455.200,  0.886 
455.300,  0.952 
455.400,  0.779 
455.500,  0.819 
455.600,  0.735 
455.700,  0.919 
455.800,  0.923 
455.900,  0.884 
456.000,  0.881 
456.100,  0.922 
456.200,  0.962 
456.300,  0.995 
456.400,  0.815 
456.500,  0.817 
456.600,  0.859 
456.700,  0.897 
456.800,  0.928 
456.900,  0.883 
457.000,  0.916 
457.100,  0.793 
457.200,  0.710 
457.300,  0.908 
457.400,  0.951 
457.500,  0.923 
457.600,  0.857 
457.700,  0.893 
457.800,  0.890 
457.900,  0.871 
458.000,  0.784 
458.100,  0.776 
458.200,  0.853 
458.300,  0.819 
458.400,  0.794 
458.500,  0.899 
458.600,  0.733 
458.700,  0.931 
458.800,  0.861 
458.900,  0.893 
459.000,  0.846 
459.100,  0.860 
459.200,  0.837 
459.300,  0.790 
459.400,  0.879 
459.500,  0.823 
459.600,  0.767 
459.700,  0.883 
459.800,  0.800 
459.900,  0.932 
460.000,  0.836 
460.100,  0.697 
460.200,  0.781 
460.300,  0.786 
460.400,  0.965 
460.500,  0.797 
460.600,  0.917 
460.700,  0.951 
460.800,  0.866 
460.900,  0.901 
461.000,  0.931 
461.100,  0.762 
461.200,  0.936 
461.300,  0.766 
461.400,  0.865 
461.500,  0.941 
461.600,  0.792 
461.700,  0.839 
461.800,  0.878 
461.900,  0.778 
462.000,  0.870 
462.100,  0.925 
462.200,  0.858 
462.300,  0.885 
462.400,  0.961 
462.500,  0.862 
462.600,  0.784 
462.700,  0.893 
462.800,  0.953 
462.900,  0.855 
463.000,  0.900 
463.100,  0.937 
463.200,  0.964 
463.300,  0.841 
463.400,  0.838 
463.500,  0.914 
463.600,  0.826 
463.700,  0.866 
463.800,  0.779 
463.900,  0.940 
464.000,  0.850 
464.100,  0.974 
464.200,  0.955 
464.300,  0.881 
464.400,  0.918 
464.500,  0.879 
464.600,  0.905 
464.700,  0.880 
464.800,  0.917 
464.900,  0.813 
465.000,  0.926 
465.100,  0.918 
465.200,  0.852 
465.300,  0.928 
465.400,  0.846 
465.500,  0.838 
465.600,  0.847 
465.700,  0.847 
465.800,  0.970 
465.900,  0.881 
466.000,  0.953 
466.100,  0.931 
466.200,  0.914 
466.300,  0.891 
466.400,  0.927 
466.500,  0.896 
466.600,  0.959 
466.700,  0.767 
466.800,  0.687 
466.900,  0.812 
467.000,  0.866 
467.100,  0.959 
467.200,  0.957 
467.300,  0.791 
467.400,  0.989 
467.500,  0.836 
467.600,  0.909 
467.700,  0.928 
467.800,  0.875 
467.900,  0.802 
468.000,  0.803 
468.100,  0.896 
468.200,  0.854 
468.300,  0.933 
468.400,  0.947 
468.500,  0.830 
468.600,  0.838 
468.700,  0.928 
468.800,  0.942 
468.900,  0.937 
469.000,  0.832 
469.100,  0.796 
469.200,  0.956 
469.300,  0.941 
469.400,  0.956 
469.500,  0.890 
469.600,  0.983 
469.700,  0.916 
469.800,  0.887 
469.900,  0.854 
470.000,  0.946 
470.100,  0.856 
470.200,  0.873 
470.300,  0.781 
470.400,  0.880 
470.500,  0.903 
470.600,  0.926 
470.700,  0.795 
470.800,  0.904 
470.900,  0.810 
471.000,  0.788 
471.100,  0.897 
471.200,  0.926 
471.300,  0.992 
471.400,  0.828 
471.500,  0.946 
471.600,  0.901 
471.700,  0.978 
471.800,  0.928 
471.900,  0.963 
472.000,  0.992 
472.100,  0.903 
472.200,  0.862 
472.300,  0.887 
472.400,  0.909 
472.500,  0.987 
472.600,  0.987 
472.700,  0.834 
472.800,  0.918 
472.900,  0.844 
473.000,  0.843 
473.100,  0.883 
473.200,  0.805 
473.300,  0.880 
473.400,  0.846 
473.500,  0.992 
473.600,  0.898 
473.700,  0.794 
473.800,  0.926 
473.900,  0.879 
474.000,  0.889 
474.100,  0.959 
474.200,  0.873 
474.300,  0.883 
474.400,  0.956 
474.500,  0.893 
474.600,  0.839 
474.700,  0.967 
474.800,  0.884 
474.900,  0.959 
475.000,  0.938 
475.100,  0.963 
475.200,  0.847 
475.300,  0.994 
475.400,  0.860 
475.500,  0.954 
475.600,  0.862 
475.700,  0.904 
475.800,  0.852 
475.900,  0.897 
476.000,  0.956 
476.100,  0.943 
476.200,  0.851 
476.300,  0.854 
476.400,  0.892 
476.500,  0.939 
476.600,  0.820 
476.700,  0.917 
476.800,  0.807 
476.900,  0.922 
477.000,  0.911 
477.100,  0.966 
477.200,  0.929 
477.300,  0.853 
477.400,  0.978 
477.500,  0.968 
477.600,  0.894 
477.700,  0.977 
477.800,  0.991 
477.900,  0.980 
478.000,  0.931 
478.100,  0.928 
478.200,  0.916 
478.300,  0.843 
478.400,  0.929 
478.500,  0.983 
478.600,  0.867 
478.700,  0.843 
478.800,  0.935 
478.900,  0.777 
479.000,  0.898 
479.100,  0.931 
479.200,  0.872 
479.300,  0.895 
479.400,  0.966 
479.500,  0.975 
479.600,  0.910 
479.700,  0.955 
479.800,  0.845 
479.900,  0.897 
480.000,  0.921 
480.100,  0.852 
480.200,  0.917 
480.300,  0.895 
480.400,  0.948 
480.500,  0.814 
480.600,  0.958 
480.700,  0.900 
480.800,  0.934 
480.900,  0.887 
481.000,  0.923 
481.100,  0.901 
481.200,  0.890 
481.300,  0.883 
481.400,  0.951 
481.500,  0.945 
481.600,  0.965 
481.700,  0.948 
481.800,  0.811 
481.900,  0.982 
482.000,  0.885 
482.100,  0.906 
482.200,  0.960 
482.300,  0.865 
482.400,  0.843 
482.500,  0.942 
482.600,  0.937 
482.700,  0.918 
482.800,  0.999 
482.900,  0.831 
483.000,  0.931 
483.100,  0.884 
483.200,  0.896 
483.300,  0.890 
483.400,  0.932 
483.500,  0.905 
483.600,  0.790 
483.700,  0.952 
483.800,  0.932 
483.900,  0.880 
484.000,  0.706 
484.100,  0.880 
484.200,  0.906 
484.300,  0.863 
484.400,  0.927 
484.500,  0.905 
484.600,  0.866 
484.700,  0.907 
484.800,  0.916 
484.900,  0.872 
485.000,  0.981 
485.100,  0.899 
485.200,  0.844 
485.300,  0.829 
485.400,  0.913 
485.500,  0.769 
485.600,  0.725 
485.700,  0.837 
485.800,  0.830 
485.900,  0.740 
486.000,  0.620 
486.100,  0.410 
486.200,  0.534 
486.300,  0.770 
486.400,  0.668 
486.500,  0.839 
486.600,  0.737 
486.700,  0.867 
486.800,  0.814 
486.900,  0.874 
487.000,  0.850 
487.100,  0.661 
487.200,  0.714 
487.300,  0.895 
487.400,  0.873 
487.500,  0.898 
487.600,  0.805 
487.700,  0.948 
487.800,  0.744 
487.900,  0.931 
488.000,  0.964 
488.100,  0.944 
488.200,  0.770 
488.300,  1.004 
488.400,  0.957 
488.500,  0.834 
488.600,  0.883 
488.700,  0.798 
488.800,  0.893 
488.900,  0.766 
489.000,  0.991 
489.100,  0.589 
489.200,  0.868 
489.300,  0.892 
489.400,  0.922 
489.500,  0.947 
489.600,  0.974 
489.700,  0.938 
489.800,  0.982 
489.900,  0.994 
490.000,  0.885 
490.100,  0.956 
490.200,  0.864 
490.300,  0.785 
490.400,  0.863 
490.500,  0.974 
490.600,  0.985 
490.700,  0.946 
490.800,  0.876 
490.900,  0.936 
491.000,  0.820 
491.100,  0.817 
491.200,  0.869 
491.300,  0.970 
491.400,  0.911 
491.500,  0.938 
491.600,  0.970 
491.700,  0.907 
491.800,  0.880 
491.900,  0.732 
492.000,  0.829 
492.100,  0.830 
492.200,  0.851 
492.300,  0.978 
492.400,  0.872 
492.500,  0.761 
492.600,  0.927 
492.700,  0.876 
492.800,  0.941 
492.900,  0.976 
493.000,  0.928 
493.100,  0.969 
493.200,  0.974 
493.300,  0.857 
493.400,  0.794 
493.500,  0.970 
493.600,  0.840 
493.700,  0.907 
493.800,  0.855 
493.900,  0.778 
494.000,  0.802 
494.100,  0.935 
494.200,  0.856 
494.300,  0.911 
494.400,  0.966 
494.500,  0.942 
494.600,  0.856 
494.700,  0.981 
494.800,  0.929 
494.900,  0.940 
495.000,  0.924 
495.100,  0.972 
495.200,  0.951 
495.300,  0.880 
495.400,  1.000 
495.500,  0.861 
495.600,  0.945 
495.700,  0.721 
495.800,  0.682 
495.900,  0.933 
496.000,  0.965 
496.100,  0.983 
496.200,  0.933 
496.300,  0.908 
496.400,  0.969 
496.500,  0.868 
496.600,  0.863 
496.700,  0.924 
496.800,  0.809 
496.900,  0.944 
497.000,  0.891 
497.100,  0.873 
497.200,  0.956 
497.300,  0.870 
497.400,  0.966 
497.500,  0.940 
497.600,  0.913 
497.700,  0.932 
497.800,  0.968 
497.900,  0.819 
498.000,  0.862 
498.100,  0.898 
498.200,  0.767 
498.300,  0.745 
498.400,  0.766 
498.500,  0.876 
498.600,  0.827 
498.700,  0.941 
498.800,  0.907 
498.900,  0.871 
499.000,  1.003 
499.100,  0.849 
499.200,  0.982 
499.300,  0.924 
499.400,  0.773 
499.500,  0.957 
499.600,  0.990 
499.700,  0.912 
499.800,  0.888 
499.900,  0.871 
