wavelength, flux 
380.000,  0.416 
380.100,  0.501 
380.200,  0.544 
380.300,  0.618 
380.400,  0.721 
380.500,  0.737 
380.600,  0.809 
380.700,  0.866 
380.800,  0.908 
380.900,  0.955 
381.000,  1.002 
381.100,  1.024 
381.200,  0.994 
381.300,  1.016 
381.400,  0.974 
381.500,  0.994 
381.600,  0.990 
381.700,  1.015 
381.800,  0.995 
381.900,  0.997 
382.000,  0.930 
382.100,  0.970 
382.200,  0.927 
382.300,  0.961 
382.400,  0.847 
382.500,  0.807 
382.600,  0.739 
382.700,  0.761 
382.800,  0.709 
382.900,  0.614 
383.000,  0.625 
383.100,  0.541 
383.200,  0.477 
383.300,  0.394 
383.400,  0.345 
383.500,  0.248 
383.600,  0.230 
383.700,  0.352 
383.800,  0.356 
383.900,  0.451 
384.000,  0.534 
384.100,  0.643 
384.200,  0.675 
384.300,  0.727 
384.400,  0.770 
384.500,  0.775 
384.600,  0.822 
384.700,  0.874 
384.800,  0.883 
384.900,  0.928 
385.000,  0.840 
385.100,  0.921 
385.200,  0.986 
385.300,  0.970 
385.400,  0.932 
385.500,  1.006 
385.600,  0.884 
385.700,  1.001 
385.800,  0.957 
385.900,  0.987 
386.000,  0.925 
386.100,  0.996 
386.200,  0.986 
386.300,  0.873 
386.400,  0.960 
386.500,  0.956 
386.600,  0.939 
386.700,  0.956 
386.800,  0.965 
386.900,  0.946 
387.000,  0.946 
387.100,  0.933 
387.200,  0.917 
387.300,  0.855 
387.400,  0.889 
387.500,  0.869 
387.600,  0.835 
387.700,  0.870 
387.800,  0.743 
387.900,  0.711 
388.000,  0.749 
388.100,  0.660 
388.200,  0.622 
388.300,  0.572 
388.400,  0.537 
388.500,  0.464 
388.600,  0.369 
388.700,  0.328 
388.800,  0.285 
388.900,  0.176 
389.000,  0.251 
389.100,  0.328 
389.200,  0.383 
389.300,  0.445 
389.400,  0.507 
389.500,  0.550 
389.600,  0.607 
389.700,  0.659 
389.800,  0.695 
389.900,  0.766 
390.000,  0.762 
390.100,  0.737 
390.200,  0.813 
390.300,  0.815 
390.400,  0.854 
390.500,  0.872 
390.600,  0.858 
390.700,  0.929 
390.800,  0.916 
390.900,  0.928 
391.000,  0.964 
391.100,  0.952 
391.200,  0.965 
391.300,  0.945 
391.400,  0.965 
391.500,  0.961 
391.600,  0.967 
391.700,  0.980 
391.800,  0.996 
391.900,  0.964 
392.000,  0.939 
392.100,  0.979 
392.200,  1.021 
392.300,  0.969 
392.400,  1.002 
392.500,  0.998 
392.600,  1.008 
392.700,  1.002 
392.800,  1.009 
392.900,  0.981 
393.000,  0.958 
393.100,  0.993 
393.200,  0.960 
393.300,  0.993 
393.400,  0.825 
393.500,  1.000 
393.600,  0.967 
393.700,  1.005 
393.800,  0.908 
393.900,  0.936 
394.000,  1.010 
394.100,  0.979 
394.200,  0.978 
394.300,  0.954 
394.400,  0.887 
394.500,  0.944 
394.600,  0.951 
394.700,  0.925 
394.800,  0.911 
394.900,  0.941 
395.000,  0.929 
395.100,  0.913 
395.200,  0.925 
395.300,  0.912 
395.400,  0.908 
395.500,  0.877 
395.600,  0.841 
395.700,  0.815 
395.800,  0.786 
395.900,  0.731 
396.000,  0.715 
396.100,  0.697 
396.200,  0.617 
396.300,  0.590 
396.400,  0.571 
396.500,  0.511 
396.600,  0.439 
396.700,  0.380 
396.800,  0.288 
396.900,  0.284 
397.000,  0.218 
397.100,  0.298 
397.200,  0.336 
397.300,  0.378 
397.400,  0.444 
397.500,  0.456 
397.600,  0.513 
397.700,  0.614 
397.800,  0.612 
397.900,  0.664 
398.000,  0.716 
398.100,  0.765 
398.200,  0.779 
398.300,  0.768 
398.400,  0.837 
398.500,  0.880 
398.600,  0.876 
398.700,  0.859 
398.800,  0.904 
398.900,  0.927 
399.000,  0.934 
399.100,  0.901 
399.200,  0.896 
399.300,  0.946 
399.400,  0.921 
399.500,  0.940 
399.600,  0.975 
399.700,  0.941 
399.800,  0.932 
399.900,  0.952 
400.000,  0.991 
400.100,  0.973 
400.200,  0.893 
400.300,  0.928 
400.400,  0.969 
400.500,  0.897 
400.600,  1.002 
400.700,  1.023 
400.800,  1.002 
400.900,  1.002 
401.000,  0.957 
401.100,  0.959 
401.200,  0.954 
401.300,  0.978 
401.400,  0.998 
401.500,  0.971 
401.600,  0.995 
401.700,  1.007 
401.800,  0.982 
401.900,  0.989 
402.000,  0.988 
402.100,  0.986 
402.200,  1.004 
402.300,  1.000 
402.400,  0.976 
402.500,  0.950 
402.600,  1.013 
402.700,  0.977 
402.800,  0.958 
402.900,  0.983 
403.000,  1.009 
403.100,  0.954 
403.200,  0.977 
403.300,  0.976 
403.400,  1.022 
403.500,  1.000 
403.600,  0.953 
403.700,  1.014 
403.800,  0.986 
403.900,  0.997 
404.000,  1.007 
404.100,  0.954 
404.200,  1.003 
404.300,  1.002 
404.400,  0.997 
404.500,  0.982 
404.600,  0.966 
404.700,  0.999 
404.800,  1.009 
404.900,  0.953 
405.000,  0.997 
405.100,  0.966 
405.200,  0.969 
405.300,  0.983 
405.400,  0.951 
405.500,  1.014 
405.600,  1.002 
405.700,  0.976 
405.800,  1.002 
405.900,  0.985 
406.000,  1.015 
406.100,  0.999 
406.200,  0.961 
406.300,  0.972 
406.400,  0.929 
406.500,  1.004 
406.600,  0.987 
406.700,  0.913 
406.800,  0.969 
406.900,  0.970 
407.000,  0.974 
407.100,  0.937 
407.200,  0.924 
407.300,  0.921 
407.400,  0.942 
407.500,  0.944 
407.600,  0.985 
407.700,  0.878 
407.800,  0.871 
407.900,  0.940 
408.000,  0.909 
408.100,  0.933 
408.200,  0.918 
408.300,  0.895 
408.400,  0.887 
408.500,  0.815 
408.600,  0.859 
408.700,  0.872 
408.800,  0.799 
408.900,  0.807 
409.000,  0.752 
409.100,  0.726 
409.200,  0.655 
409.300,  0.653 
409.400,  0.636 
409.500,  0.535 
409.600,  0.562 
409.700,  0.497 
409.800,  0.423 
409.900,  0.408 
410.000,  0.343 
410.100,  0.299 
410.200,  0.231 
410.300,  0.307 
410.400,  0.342 
410.500,  0.425 
410.600,  0.427 
410.700,  0.503 
410.800,  0.569 
410.900,  0.575 
411.000,  0.621 
411.100,  0.668 
411.200,  0.712 
411.300,  0.739 
411.400,  0.797 
411.500,  0.799 
411.600,  0.841 
411.700,  0.828 
411.800,  0.858 
411.900,  0.887 
412.000,  0.892 
412.100,  0.897 
412.200,  0.961 
412.300,  0.918 
412.400,  0.931 
412.500,  0.926 
412.600,  0.940 
412.700,  0.943 
412.800,  0.890 
412.900,  0.922 
413.000,  0.966 
413.100,  0.918 
413.200,  0.950 
413.300,  0.978 
413.400,  0.967 
413.500,  0.972 
413.600,  0.992 
413.700,  0.977 
413.800,  0.978 
413.900,  1.001 
414.000,  0.980 
414.100,  0.949 
414.200,  0.959 
414.300,  0.991 
414.400,  0.986 
414.500,  0.970 
414.600,  0.992 
414.700,  1.020 
414.800,  0.977 
414.900,  1.046 
415.000,  1.016 
415.100,  0.989 
415.200,  0.978 
415.300,  0.977 
415.400,  0.984 
415.500,  0.996 
415.600,  1.008 
415.700,  0.977 
415.800,  0.972 
415.900,  0.993 
416.000,  1.027 
416.100,  0.998 
416.200,  0.996 
416.300,  1.014 
416.400,  0.949 
416.500,  0.997 
416.600,  1.018 
416.700,  0.964 
416.800,  1.021 
416.900,  0.985 
417.000,  0.962 
417.100,  1.014 
417.200,  0.917 
417.300,  0.950 
417.400,  0.945 
417.500,  0.987 
417.600,  0.974 
417.700,  0.988 
417.800,  0.945 
417.900,  0.975 
418.000,  1.041 
418.100,  1.000 
418.200,  0.986 
418.300,  1.033 
418.400,  1.020 
418.500,  0.989 
418.600,  0.994 
418.700,  0.978 
418.800,  1.045 
418.900,  1.018 
419.000,  0.993 
419.100,  1.011 
419.200,  0.987 
419.300,  1.012 
419.400,  0.992 
419.500,  0.949 
419.600,  1.003 
419.700,  0.992 
419.800,  0.996 
419.900,  0.959 
420.000,  0.985 
420.100,  1.006 
420.200,  0.955 
420.300,  1.022 
420.400,  1.013 
420.500,  0.987 
420.600,  1.005 
420.700,  0.992 
420.800,  0.965 
420.900,  0.991 
421.000,  1.008 
421.100,  1.014 
421.200,  0.995 
421.300,  0.980 
421.400,  1.006 
421.500,  1.020 
421.600,  0.959 
421.700,  1.008 
421.800,  0.989 
421.900,  0.949 
422.000,  0.988 
422.100,  1.020 
422.200,  1.002 
422.300,  0.985 
422.400,  0.988 
422.500,  0.994 
422.600,  0.989 
422.700,  0.929 
422.800,  1.006 
422.900,  0.990 
423.000,  0.988 
423.100,  1.016 
423.200,  0.989 
423.300,  0.928 
423.400,  1.026 
423.500,  1.015 
423.600,  0.940 
423.700,  0.992 
423.800,  0.932 
423.900,  0.968 
424.000,  1.009 
424.100,  0.980 
424.200,  0.930 
424.300,  1.009 
424.400,  1.018 
424.500,  1.015 
424.600,  1.013 
424.700,  0.921 
424.800,  1.011 
424.900,  0.977 
425.000,  0.986 
425.100,  0.982 
425.200,  0.981 
425.300,  0.947 
425.400,  0.976 
425.500,  1.008 
425.600,  0.999 
425.700,  0.976 
425.800,  0.963 
425.900,  0.970 
426.000,  0.976 
426.100,  0.957 
426.200,  1.001 
426.300,  0.994 
426.400,  0.957 
426.500,  0.984 
426.600,  0.994 
426.700,  0.990 
426.800,  0.982 
426.900,  0.983 
427.000,  0.991 
427.100,  0.964 
427.200,  0.944 
427.300,  0.965 
427.400,  0.984 
427.500,  1.021 
427.600,  0.975 
427.700,  1.024 
427.800,  0.974 
427.900,  0.940 
428.000,  1.047 
428.100,  0.991 
428.200,  0.976 
428.300,  0.972 
428.400,  0.989 
428.500,  0.983 
428.600,  1.009 
428.700,  1.016 
428.800,  0.986 
428.900,  0.978 
429.000,  0.912 
429.100,  0.931 
429.200,  0.976 
429.300,  0.995 
429.400,  0.930 
429.500,  0.984 
429.600,  0.982 
429.700,  0.950 
429.800,  1.004 
429.900,  0.943 
430.000,  0.935 
430.100,  0.993 
430.200,  0.948 
430.300,  0.897 
430.400,  0.977 
430.500,  0.973 
430.600,  0.984 
430.700,  0.945 
430.800,  0.900 
430.900,  0.948 
431.000,  0.990 
431.100,  0.988 
431.200,  0.985 
431.300,  0.869 
431.400,  0.892 
431.500,  0.876 
431.600,  0.885 
431.700,  0.896 
431.800,  0.918 
431.900,  0.927 
432.000,  0.889 
432.100,  0.902 
432.200,  0.869 
432.300,  0.876 
432.400,  0.872 
432.500,  0.800 
432.600,  0.809 
432.700,  0.780 
432.800,  0.781 
432.900,  0.768 
433.000,  0.731 
433.100,  0.680 
433.200,  0.686 
433.300,  0.659 
433.400,  0.558 
433.500,  0.535 
433.600,  0.520 
433.700,  0.433 
433.800,  0.406 
433.900,  0.341 
434.000,  0.288 
434.100,  0.232 
434.200,  0.350 
434.300,  0.428 
434.400,  0.443 
434.500,  0.532 
434.600,  0.568 
434.700,  0.563 
434.800,  0.606 
434.900,  0.636 
435.000,  0.698 
435.100,  0.692 
435.200,  0.677 
435.300,  0.790 
435.400,  0.804 
435.500,  0.818 
435.600,  0.839 
435.700,  0.870 
435.800,  0.874 
435.900,  0.896 
436.000,  0.902 
436.100,  0.939 
436.200,  0.939 
436.300,  0.908 
436.400,  0.938 
436.500,  0.948 
436.600,  0.974 
436.700,  0.965 
436.800,  0.914 
436.900,  0.927 
437.000,  0.923 
437.100,  0.968 
437.200,  0.989 
437.300,  0.979 
437.400,  0.964 
437.500,  0.952 
437.600,  0.999 
437.700,  0.982 
437.800,  1.008 
437.900,  0.995 
438.000,  1.005 
438.100,  0.994 
438.200,  1.001 
438.300,  0.979 
438.400,  0.967 
438.500,  0.881 
438.600,  1.009 
438.700,  0.980 
438.800,  1.017 
438.900,  1.025 
439.000,  0.966 
439.100,  0.961 
439.200,  1.002 
439.300,  0.984 
439.400,  0.993 
439.500,  0.965 
439.600,  0.961 
439.700,  0.989 
439.800,  0.976 
439.900,  1.030 
440.000,  0.904 
440.100,  1.011 
440.200,  1.029 
440.300,  0.997 
440.400,  1.025 
440.500,  0.956 
440.600,  1.016 
440.700,  0.970 
440.800,  0.977 
440.900,  1.023 
441.000,  0.992 
441.100,  0.984 
441.200,  0.993 
441.300,  0.982 
441.400,  1.022 
441.500,  0.994 
441.600,  1.006 
441.700,  0.951 
441.800,  0.948 
441.900,  1.005 
442.000,  1.022 
442.100,  0.979 
442.200,  1.019 
442.300,  1.022 
442.400,  1.009 
442.500,  0.986 
442.600,  0.988 
442.700,  1.012 
442.800,  1.001 
442.900,  1.021 
443.000,  1.000 
443.100,  1.008 
443.200,  0.991 
443.300,  0.965 
443.400,  0.964 
443.500,  1.010 
443.600,  0.987 
443.700,  0.966 
443.800,  1.002 
443.900,  1.007 
444.000,  0.980 
444.100,  0.995 
444.200,  0.969 
444.300,  0.993 
444.400,  0.970 
444.500,  0.989 
444.600,  0.982 
444.700,  0.990 
444.800,  1.027 
444.900,  0.990 
445.000,  0.948 
445.100,  0.970 
445.200,  0.995 
445.300,  0.996 
445.400,  1.009 
445.500,  1.001 
445.600,  1.007 
445.700,  0.986 
445.800,  1.021 
445.900,  1.016 
446.000,  0.996 
446.100,  1.000 
446.200,  0.952 
446.300,  1.032 
446.400,  0.992 
446.500,  0.994 
446.600,  1.001 
446.700,  1.021 
446.800,  0.944 
446.900,  0.966 
447.000,  1.006 
447.100,  0.981 
447.200,  0.961 
447.300,  1.014 
447.400,  1.044 
447.500,  1.000 
447.600,  0.947 
447.700,  1.008 
447.800,  1.007 
447.900,  0.945 
448.000,  0.999 
448.100,  0.710 
448.200,  0.952 
448.300,  1.007 
448.400,  1.000 
448.500,  1.027 
448.600,  0.988 
448.700,  0.999 
448.800,  1.004 
448.900,  0.993 
449.000,  1.010 
449.100,  0.937 
449.200,  1.021 
449.300,  0.979 
449.400,  1.000 
449.500,  0.935 
449.600,  0.999 
449.700,  1.004 
449.800,  0.971 
449.900,  1.008 
450.000,  1.001 
450.100,  0.944 
450.200,  0.974 
450.300,  0.981 
450.400,  0.999 
450.500,  1.011 
450.600,  1.012 
450.700,  0.993 
450.800,  0.934 
450.900,  1.047 
451.000,  0.992 
451.100,  0.966 
451.200,  0.969 
451.300,  1.018 
451.400,  0.984 
451.500,  0.956 
451.600,  0.981 
451.700,  0.964 
451.800,  0.994 
451.900,  1.009 
452.000,  0.950 
452.100,  0.983 
452.200,  0.996 
452.300,  0.947 
452.400,  0.986 
452.500,  0.990 
452.600,  0.996 
452.700,  0.962 
452.800,  1.004 
452.900,  0.999 
453.000,  1.005 
453.100,  0.971 
453.200,  0.994 
453.300,  0.985 
453.400,  0.894 
453.500,  0.984 
453.600,  1.008 
453.700,  1.016 
453.800,  0.966 
453.900,  0.981 
454.000,  1.006 
454.100,  0.968 
454.200,  0.955 
454.300,  1.024 
454.400,  1.026 
454.500,  1.007 
454.600,  0.972 
454.700,  1.013 
454.800,  0.993 
454.900,  0.901 
455.000,  0.912 
455.100,  0.996 
455.200,  0.985 
455.300,  0.985 
455.400,  0.966 
455.500,  0.971 
455.600,  0.906 
455.700,  0.996 
455.800,  0.986 
455.900,  0.936 
456.000,  0.976 
456.100,  1.010 
456.200,  0.985 
456.300,  0.977 
456.400,  0.940 
456.500,  0.965 
456.600,  1.008 
456.700,  1.009 
456.800,  1.004 
456.900,  1.011 
457.000,  1.013 
457.100,  1.011 
457.200,  0.959 
457.300,  0.991 
457.400,  0.997 
457.500,  0.996 
457.600,  0.961 
457.700,  1.031 
457.800,  0.964 
457.900,  0.999 
458.000,  0.964 
458.100,  0.997 
458.200,  1.027 
458.300,  0.977 
458.400,  0.910 
458.500,  0.984 
458.600,  0.997 
458.700,  0.988 
458.800,  0.991 
458.900,  0.997 
459.000,  0.957 
459.100,  0.986 
459.200,  0.980 
459.300,  1.040 
459.400,  0.985 
459.500,  0.992 
459.600,  0.974 
459.700,  0.968 
459.800,  0.971 
459.900,  0.985 
460.000,  0.981 
460.100,  0.998 
460.200,  0.957 
460.300,  1.003 
460.400,  0.957 
460.500,  0.974 
460.600,  1.023 
460.700,  1.001 
460.800,  1.000 
460.900,  1.004 
461.000,  1.004 
461.100,  1.011 
461.200,  0.971 
461.300,  0.998 
461.400,  1.004 
461.500,  0.984 
461.600,  0.993 
461.700,  0.947 
461.800,  1.002 
461.900,  0.943 
462.000,  0.996 
462.100,  0.978 
462.200,  0.952 
462.300,  1.007 
462.400,  0.951 
462.500,  1.025 
462.600,  0.973 
462.700,  1.005 
462.800,  0.991 
462.900,  0.927 
463.000,  0.968 
463.100,  0.999 
463.200,  0.985 
463.300,  0.970 
463.400,  0.951 
463.500,  0.987 
463.600,  0.962 
463.700,  0.988 
463.800,  1.022 
463.900,  1.041 
464.000,  0.969 
464.100,  0.976 
464.200,  1.016 
464.300,  0.982 
464.400,  0.971 
464.500,  0.968 
464.600,  0.993 
464.700,  0.989 
464.800,  0.991 
464.900,  0.993 
465.000,  0.996 
465.100,  0.986 
465.200,  1.013 
465.300,  1.039 
465.400,  0.975 
465.500,  1.025 
465.600,  0.994 
465.700,  0.960 
465.800,  0.981 
465.900,  1.003 
466.000,  1.010 
466.100,  0.995 
466.200,  0.972 
466.300,  0.976 
466.400,  0.993 
466.500,  0.985 
466.600,  0.980 
466.700,  0.964 
466.800,  1.031 
466.900,  0.982 
467.000,  1.033 
467.100,  0.963 
467.200,  1.030 
467.300,  0.991 
467.400,  1.007 
467.500,  1.009 
467.600,  1.029 
467.700,  0.973 
467.800,  1.015 
467.900,  1.000 
468.000,  1.009 
468.100,  0.976 
468.200,  0.989 
468.300,  0.994 
468.400,  1.045 
468.500,  1.017 
468.600,  1.008 
468.700,  1.001 
468.800,  0.995 
468.900,  0.996 
469.000,  0.984 
469.100,  0.979 
469.200,  1.048 
469.300,  1.006 
469.400,  0.967 
469.500,  0.975 
469.600,  1.028 
469.700,  1.048 
469.800,  0.981 
469.900,  1.001 
470.000,  1.012 
470.100,  1.007 
470.200,  0.995 
470.300,  0.999 
470.400,  0.960 
470.500,  0.977 
470.600,  0.992 
470.700,  0.991 
470.800,  0.971 
470.900,  0.986 
471.000,  0.975 
471.100,  0.972 
471.200,  1.023 
471.300,  0.999 
471.400,  1.015 
471.500,  0.974 
471.600,  1.036 
471.700,  0.993 
471.800,  1.003 
471.900,  1.021 
472.000,  0.987 
472.100,  0.995 
472.200,  0.990 
472.300,  1.030 
472.400,  1.018 
472.500,  0.971 
472.600,  1.005 
472.700,  0.978 
472.800,  0.993 
472.900,  0.999 
473.000,  0.971 
473.100,  0.964 
473.200,  0.979 
473.300,  0.990 
473.400,  0.971 
473.500,  1.002 
473.600,  0.998 
473.700,  1.025 
473.800,  0.988 
473.900,  1.009 
474.000,  0.979 
474.100,  0.972 
474.200,  1.016 
474.300,  0.997 
474.400,  0.970 
474.500,  1.005 
474.600,  0.986 
474.700,  1.036 
474.800,  1.034 
474.900,  0.996 
475.000,  1.012 
475.100,  1.024 
475.200,  0.993 
475.300,  1.010 
475.400,  0.984 
475.500,  1.000 
475.600,  1.026 
475.700,  1.020 
475.800,  1.003 
475.900,  0.961 
476.000,  1.052 
476.100,  1.041 
476.200,  0.977 
476.300,  1.007 
476.400,  1.004 
476.500,  1.014 
476.600,  1.024 
476.700,  1.022 
476.800,  0.986 
476.900,  1.007 
477.000,  1.005 
477.100,  1.016 
477.200,  1.033 
477.300,  0.996 
477.400,  1.045 
477.500,  1.005 
477.600,  0.997 
477.700,  1.011 
477.800,  1.001 
477.900,  1.029 
478.000,  0.965 
478.100,  1.024 
478.200,  1.012 
478.300,  0.993 
478.400,  1.031 
478.500,  0.980 
478.600,  0.978 
478.700,  0.991 
478.800,  0.995 
478.900,  1.019 
479.000,  0.964 
479.100,  1.045 
479.200,  1.016 
479.300,  1.009 
479.400,  0.997 
479.500,  0.985 
479.600,  0.994 
479.700,  1.055 
479.800,  1.023 
479.900,  0.990 
480.000,  0.998 
480.100,  1.001 
480.200,  1.009 
480.300,  1.004 
480.400,  1.009 
480.500,  0.964 
480.600,  0.991 
480.700,  0.963 
480.800,  1.015 
480.900,  0.987 
481.000,  1.033 
481.100,  0.979 
481.200,  0.995 
481.300,  1.045 
481.400,  1.025 
481.500,  1.010 
481.600,  0.999 
481.700,  1.030 
481.800,  1.019 
481.900,  1.039 
482.000,  0.979 
482.100,  0.985 
482.200,  0.977 
482.300,  0.988 
482.400,  0.934 
482.500,  1.026 
482.600,  0.999 
482.700,  0.966 
482.800,  0.981 
482.900,  0.936 
483.000,  0.946 
483.100,  0.976 
483.200,  0.984 
483.300,  1.011 
483.400,  0.964 
483.500,  0.977 
483.600,  0.923 
483.700,  0.927 
483.800,  0.944 
483.900,  0.929 
484.000,  0.915 
484.100,  0.881 
484.200,  0.892 
484.300,  0.879 
484.400,  0.864 
484.500,  0.852 
484.600,  0.848 
484.700,  0.834 
484.800,  0.787 
484.900,  0.777 
485.000,  0.761 
485.100,  0.692 
485.200,  0.718 
485.300,  0.671 
485.400,  0.643 
485.500,  0.600 
485.600,  0.576 
485.700,  0.576 
485.800,  0.495 
485.900,  0.475 
486.000,  0.409 
486.100,  0.298 
486.200,  0.336 
486.300,  0.423 
486.400,  0.520 
486.500,  0.543 
486.600,  0.555 
486.700,  0.597 
486.800,  0.623 
486.900,  0.671 
487.000,  0.706 
487.100,  0.718 
487.200,  0.708 
487.300,  0.772 
487.400,  0.769 
487.500,  0.793 
487.600,  0.818 
487.700,  0.843 
487.800,  0.831 
487.900,  0.881 
488.000,  0.912 
488.100,  0.897 
488.200,  0.891 
488.300,  0.938 
488.400,  0.924 
488.500,  0.930 
488.600,  0.925 
488.700,  0.927 
488.800,  0.915 
488.900,  0.935 
489.000,  0.972 
489.100,  0.908 
489.200,  0.960 
489.300,  0.960 
489.400,  0.953 
489.500,  0.962 
489.600,  0.988 
489.700,  1.023 
489.800,  0.996 
489.900,  0.993 
490.000,  1.028 
490.100,  0.960 
490.200,  0.975 
490.300,  0.967 
490.400,  1.001 
490.500,  0.988 
490.600,  1.009 
490.700,  0.995 
490.800,  0.995 
490.900,  0.962 
491.000,  0.973 
491.100,  1.001 
491.200,  1.030 
491.300,  1.014 
491.400,  0.986 
491.500,  1.010 
491.600,  1.003 
491.700,  0.998 
491.800,  1.009 
491.900,  0.972 
492.000,  1.023 
492.100,  0.990 
492.200,  0.928 
492.300,  1.017 
492.400,  0.970 
492.500,  0.983 
492.600,  0.987 
492.700,  1.024 
492.800,  0.959 
492.900,  0.988 
493.000,  1.014 
493.100,  1.026 
493.200,  1.007 
493.300,  1.002 
493.400,  0.961 
493.500,  1.007 
493.600,  0.996 
493.700,  0.998 
493.800,  0.976 
493.900,  1.035 
494.000,  0.993 
494.100,  0.996 
494.200,  1.011 
494.300,  1.044 
494.400,  1.025 
494.500,  1.018 
494.600,  1.024 
494.700,  0.987 
494.800,  1.050 
494.900,  0.972 
495.000,  1.005 
495.100,  0.992 
495.200,  0.975 
495.300,  1.001 
495.400,  0.967 
495.500,  1.017 
495.600,  1.027 
495.700,  0.990 
495.800,  0.971 
495.900,  0.984 
496.000,  0.997 
496.100,  0.979 
496.200,  0.972 
496.300,  1.004 
496.400,  1.015 
496.500,  0.986 
496.600,  0.995 
496.700,  1.004 
496.800,  1.002 
496.900,  1.008 
497.000,  0.994 
497.100,  0.996 
497.200,  0.984 
497.300,  1.005 
497.400,  1.006 
497.500,  1.010 
497.600,  1.033 
497.700,  1.028 
497.800,  0.972 
497.900,  0.988 
498.000,  1.018 
498.100,  0.978 
498.200,  1.011 
498.300,  0.977 
498.400,  1.003 
498.500,  1.002 
498.600,  1.014 
498.700,  1.012 
498.800,  1.028 
498.900,  1.009 
499.000,  0.989 
499.100,  0.968 
499.200,  0.991 
499.300,  0.997 
499.400,  0.976 
499.500,  1.019 
499.600,  1.030 
499.700,  0.981 
499.800,  1.037 
499.900,  0.990 
